Point in Time[s],Power Consumption[W]
3.937,96.0
13.805,83.0
23.825,102.0
33.839,83.0
44.156,94.0
53.345,83.0
64.17,82.0
73.389,83.0
84.185,86.0
93.402,83.0
104.2,83.0
113.346,126.0
124.215,108.0
133.7,84.0
143.723,103.0
153.737,126.0
164.363,91.0
173.319,102.0
184.357,140.0
193.427,89.0
204.372,85.0
213.525,85.0
223.315,83.0
233.332,109.0
244.402,91.0
253.72,106.0
264.615,136.0
273.485,131.0
284.654,132.0
293.334,128.0
304.672,110.0
313.403,83.0
324.686,84.0
333.498,116.0
344.7,133.0
353.384,86.0
364.716,90.0
373.8,81.0
383.419,84.0
393.433,89.0
404.861,92.0
413.357,99.0
424.876,92.0
433.318,92.0
444.891,91.0
453.418,138.0
464.906,141.0
473.346,104.0
484.92,114.0
493.766,89.0
505.039,90.0
513.451,89.0
525.077,90.0
533.34,104.0
545.091,95.0
553.515,88.0
565.109,85.0
573.447,93.0
585.124,114.0
593.363,133.0
605.14,99.0
613.8,91.0
623.82,118.0
633.833,81.0
645.257,83.0
653.351,83.0
665.275,83.0
673.41,84.0
685.287,84.0
693.416,92.0
705.302,103.0
713.351,111.0
725.321,115.0
735.338,88.0
743.676,101.0
753.69,96.0
765.506,83.0
773.386,82.0
785.521,84.0
793.474,86.0
805.535,96.0
813.454,90.0
823.384,96.0
833.404,96.0
845.566,107.0
853.723,110.0
863.762,83.0
873.776,83.0
885.87,101.0
893.396,138.0
905.886,135.0
913.541,130.0
925.933,127.0
933.505,136.0
945.919,108.0
953.352,111.0
965.931,129.0
973.757,81.0
983.778,101.0
993.472,114.0
1003.449,83.0
1017.527,86.0
1026.247,86.0
1033.433,88.0
1046.263,85.0
1053.433,84.0
1066.276,94.0
1077.906,123.0
1086.293,135.0
1096.309,92.0
1103.704,92.0
1113.428,102.0
1126.59,84.0
1137.525,102.0
1146.604,88.0
1153.536,89.0
1166.621,104.0
1173.45,94.0
1186.635,94.0
1197.759,138.0
1206.65,97.0
1213.749,102.0
1226.915,93.0
1233.539,172.0
1246.957,125.0
1257.639,135.0
1266.972,102.0
1273.468,130.0
1286.987,108.0
1293.447,103.0
1307.002,89.0
1317.779,95.0
1327.016,123.0
1334.241,118.0
1343.552,107.0
1354.4,115.0
1367.171,89.0
1377.536,101.0
1387.186,103.0
1393.449,92.0
1407.203,86.0
1413.439,83.0
1427.216,81.0
1437.856,136.0
1447.231,95.0
1454.434,94.0
1467.528,94.0
1473.475,92.0
1487.576,86.0
1497.557,104.0
1503.315,87.0
1513.444,92.0
1527.605,84.0
1533.464,83.0
1543.355,88.0
1557.818,147.0
1567.635,91.0
1573.9,110.0
1587.779,120.0
1593.631,135.0
1607.821,177.0
1612.848,124.0
1623.46,99.0
1633.452,145.0
1647.851,124.0
1653.477,137.0
1668.176,174.0
1677.958,151.0
1688.224,147.0
1695.831,175.0
1703.445,161.0
1713.478,171.0
1723.446,149.0
1733.368,162.0
1743.485,153.0
1753.47,141.0
1763.456,142.0
1773.466,147.0
1783.464,154.0
1793.359,174.0
1804.129,139.0
1814.021,149.0
1823.527,179.0
1833.525,150.0
1843.341,144.0
1853.374,148.0
1863.466,149.0
1873.449,145.0
1883.446,149.0
1893.447,150.0
1903.473,157.0
1913.373,163.0
1924.756,151.0
1934.275,97.0
1943.731,117.0
1953.761,123.0
1963.471,190.0
1973.41,154.0
1983.447,149.0
1993.449,154.0
2003.438,153.0
2013.479,165.0
2023.55,172.0
2032.992,153.0
2043.82,154.0
2056.214,150.0
2063.82,145.0
2073.459,134.0
2083.482,140.0
2093.398,144.0
2103.453,146.0
2113.47,149.0
2123.49,143.0
2133.439,142.0
2143.668,147.0
2153.408,166.0
2163.458,148.0
2173.844,177.0
2183.914,167.0
2193.754,140.0
2203.776,151.0
2213.402,149.0
2223.492,151.0
2233.554,167.0
2244.447,153.0
2253.403,153.0
2263.495,158.0
2273.403,182.0
2284.107,175.0
2293.96,149.0
2303.979,149.0
2315.026,166.0
2323.538,168.0
2333.383,158.0
2343.493,151.0
2355.131,145.0
2363.454,151.0
2375.185,148.0
2383.553,161.0
2395.241,170.0
2403.377,146.0
2415.297,174.0
2425.321,149.0
2433.994,151.0
2444.017,149.0
2453.414,149.0
2463.441,153.0
2475.797,158.0
2483.468,146.0
2495.85,151.0
2503.493,146.0
2513.402,178.0
2523.746,150.0
2533.674,152.0
2543.692,160.0
2553.382,172.0
2563.49,148.0
2573.43,151.0
2583.507,148.0
2593.408,168.0
2603.53,163.0
2613.546,174.0
2623.373,179.0
2633.41,149.0
2644.559,180.0
2653.712,172.0
2664.15,167.0
2673.999,177.0
2683.478,180.0
2693.456,184.0
2703.549,182.0
2717.078,183.0
2723.486,180.0
2737.132,181.0
2743.47,153.0
2753.412,151.0
2763.862,152.0
2773.885,141.0
2783.35,141.0
2793.484,149.0
2803.471,151.0
2813.419,168.0
2823.478,151.0
2833.502,151.0
2843.491,149.0
2853.498,146.0
2863.343,149.0
2878.613,172.0
2883.648,148.0
2894.794,154.0
2903.653,174.0
2913.68,149.0
2923.509,167.0
2933.403,152.0
2943.622,154.0
2953.704,153.0
2963.621,152.0
2973.523,151.0
2983.524,151.0
2993.416,174.0
3003.884,154.0
3013.766,148.0
3023.534,165.0
3033.615,172.0
3043.599,172.0
3053.42,174.0
3063.537,146.0
3073.608,145.0
3083.525,158.0
3093.485,148.0
3103.566,171.0
3118.806,170.0
3123.841,176.0
3134.059,148.0
3147.674,151.0
3153.49,148.0
3163.507,154.0
3173.398,174.0
3183.416,153.0
3193.374,164.0
3203.499,157.0
3213.488,151.0
3223.488,154.0
3233.416,169.0
3243.766,146.0
3256.777,146.0
3263.834,139.0
3273.517,146.0
3283.577,144.0
3293.445,146.0
3303.628,148.0
3313.492,159.0
3323.676,145.0
3333.501,145.0
3343.532,151.0
3353.225,145.0
3363.783,169.0
3373.872,153.0
3383.977,149.0
3393.742,151.0
3405.066,152.0
3413.447,163.0
3425.119,151.0
3433.529,149.0
3445.172,149.0
3453.495,153.0
3463.533,151.0
3473.557,173.0
3485.282,140.0
3493.958,161.0
3503.983,155.0
3513.538,155.0
3525.952,148.0
3533.443,148.0
3546.006,148.0
3553.656,172.0
3563.472,145.0
3573.524,146.0
3583.554,150.0
3593.584,166.0
3606.168,169.0
3614.093,168.0
3624.115,164.0
3634.145,175.0
3646.586,174.0
3657.602,168.0
3666.678,176.0
3673.526,165.0
3686.732,167.0
3693.608,175.0
3706.81,148.0
3718.01,162.0
3726.841,152.0
3737.336,149.0
3747.402,146.0
3753.539,147.0
3767.493,177.0
3777.703,167.0
3787.544,173.0
3793.514,175.0
3803.517,175.0
3813.5,176.0
3827.649,177.0
3833.399,173.0
3843.442,149.0
3853.809,154.0
3864.821,107.0
3873.689,148.0
3883.521,148.0
3893.45,146.0
3903.509,146.0
3913.513,152.0
3923.52,146.0
3933.51,148.0
3943.403,148.0
3953.444,169.0
3964.171,153.0
3973.76,136.0
3983.785,138.0
3993.593,146.0
4003.654,146.0
4013.435,143.0
4023.581,146.0
4033.534,151.0
4043.525,148.0
4053.516,146.0
4063.565,146.0
4078.487,153.0
4083.558,162.0
4093.965,149.0
4103.718,158.0
4113.745,126.0
4123.575,159.0
4133.478,178.0
4143.594,159.0
4153.51,178.0
4163.63,177.0
4173.579,163.0
4183.572,187.0
4193.445,179.0
4204.118,166.0
4217.687,154.0
4223.515,142.0
4233.604,141.0
4243.544,144.0
4253.478,153.0
4264.508,162.0
4274.528,171.0
4283.551,175.0
4293.527,167.0
4303.558,178.0
4313.846,173.0
4323.8,146.0
4334.069,150.0
4347.803,153.0
4354.125,179.0
4363.441,176.0
4373.449,164.0
4383.522,149.0
4394.504,148.0
4403.54,146.0
4414.562,174.0
4423.536,156.0
4433.451,161.0
4443.94,197.0
4453.859,115.0
4463.885,136.0
4473.542,151.0
4483.521,146.0
4493.445,159.0
4503.556,185.0
4513.533,180.0
4523.533,179.0
4533.594,168.0
4543.585,182.0
4553.447,182.0
4564.299,169.0
4574.119,183.0
4584.752,177.0
4593.562,185.0
4603.592,175.0
4613.507,179.0
4623.537,184.0
4633.537,187.0
4643.663,167.0
4653.572,185.0
4663.546,180.0
4673.46,193.0
4683.544,188.0
4694.026,184.0
4703.775,182.0
4713.803,176.0
4723.684,146.0
4732.658,147.0
4743.655,153.0
4753.528,187.0
4763.559,153.0
4773.579,182.0
4784.67,154.0
4798.206,175.0
4803.922,145.0
4814.273,185.0
4824.306,151.0
4834.324,129.0
4843.853,148.0
4853.874,156.0
4863.561,187.0
4873.594,184.0
4884.77,179.0
4893.538,181.0
4903.572,190.0
4913.591,184.0
4924.985,193.0
4934.307,192.0
4945.589,184.0
4954.062,177.0
4963.622,175.0
4973.654,181.0
4986.027,187.0
4993.562,180.0
5003.589,179.0
5013.618,185.0
5023.574,187.0
5033.934,182.0
5043.873,190.0
5054.001,182.0
5063.849,162.0
5073.651,151.0
5083.682,135.0
5092.673,148.0
5107.086,167.0
5113.595,139.0
5127.185,112.0
5133.559,148.0
5147.287,150.0
5158.381,158.0
5167.375,158.0
5174.055,156.0
5184.091,158.0
5194.109,151.0
5203.849,158.0
5212.798,177.0
5227.912,184.0
5233.557,153.0
5243.576,192.0
5253.58,175.0
5268.123,148.0
5278.106,188.0
5288.223,181.0
5294.017,158.0
5304.043,117.0
5313.783,93.0
5323.553,156.0
5333.593,156.0
5343.544,151.0
5354.526,147.0
5363.597,154.0
5373.431,182.0
5383.546,161.0
5398.972,151.0
5404.023,141.0
5413.562,158.0
5423.995,163.0
5438.255,173.0
5443.626,191.0
5453.471,201.0
5463.587,187.0
5473.418,185.0
5483.582,177.0
5493.562,191.0
5503.568,164.0
5513.52,171.0
5523.573,136.0
5533.839,94.0
5544.002,159.0
5556.209,149.0
5563.781,195.0
5573.513,196.0
5583.5,197.0
5593.623,193.0
5603.642,198.0
5613.622,185.0
5624.563,171.0
5633.877,162.0
5643.894,191.0
5653.916,174.0
5664.297,157.0
5673.581,147.0
5683.688,187.0
5693.485,190.0
5703.6,154.0
5714.002,187.0
5723.578,182.0
5733.585,189.0
5743.611,187.0
5753.495,202.0
5764.546,155.0
5774.567,200.0
5783.969,188.0
5793.837,179.0
5803.564,188.0
5813.494,184.0
5823.573,179.0
5833.599,190.0
5844.532,185.0
5853.564,186.0
5863.577,192.0
5878.006,179.0
5883.568,188.0
5895.152,149.0
5904.968,149.0
5913.837,147.0
5923.464,183.0
5933.498,187.0
5943.556,149.0
5953.567,188.0
5963.608,188.0
5973.705,195.0
5983.725,193.0
5993.491,195.0
6003.61,198.0
6014.127,175.0
6024.409,190.0
6033.569,188.0
6043.565,183.0
6053.513,180.0
6063.579,189.0
6073.651,187.0
6083.651,152.0
6093.629,187.0
6103.665,189.0
6118.81,188.0
6123.846,149.0
6133.834,150.0
6148.541,153.0
6153.615,159.0
6164.099,192.0
6172.938,180.0
6184.529,195.0
6193.632,190.0
6203.66,193.0
6213.687,197.0
6223.605,159.0
6233.637,205.0
6244.69,158.0
6254.248,164.0
6264.272,192.0
6273.466,190.0
6283.496,191.0
6292.58,151.0
6303.435,185.0
6313.433,159.0
6323.465,168.0
6333.441,158.0
6343.471,159.0
6358.394,175.0
6363.655,184.0
6374.724,147.0
6384.45,179.0
6394.478,159.0
6404.062,196.0
6412.783,186.0
6427.101,193.0
6433.48,187.0
6443.512,213.0
6453.518,207.0
6463.548,186.0
6478.639,140.0
6483.673,114.0
6494.143,135.0
6504.153,154.0
6514.135,160.0
6524.165,161.0
6532.857,195.0
6543.436,192.0
6553.461,190.0
6563.487,186.0
6573.5,197.0
6583.085,192.0
6593.162,198.0
6603.439,145.0
6613.92,184.0
6623.778,184.0
6633.446,188.0
6643.439,184.0
6653.474,191.0
6663.504,192.0
6673.481,191.0
6683.537,193.0
6693.482,188.0
6703.493,193.0
6713.54,194.0
6723.444,184.0
6734.297,193.0
6743.94,187.0
6753.474,185.0
6763.435,182.0
6773.466,186.0
6783.363,184.0
6793.441,187.0
6803.442,199.0
6813.441,192.0
6823.442,188.0
6833.482,201.0
6843.61,193.0
6853.835,185.0
6863.706,197.0
6874.653,190.0
6883.482,185.0
6893.521,188.0
6903.493,181.0
6913.543,185.0
6923.544,188.0
6933.553,188.0
6943.594,206.0
6958.385,198.0
6963.756,187.0
6974.079,182.0
6983.969,186.0
6995.782,186.0
7003.665,190.0
7013.549,194.0
7023.593,182.0
7036.47,185.0
7043.6,192.0
7056.573,188.0
7063.587,187.0
7073.531,198.0
7083.833,192.0
7093.858,192.0
7103.801,185.0
7117.042,194.0
7123.584,183.0
7133.591,195.0
7143.647,185.0
7157.326,185.0
7163.62,185.0
7173.509,190.0
7183.718,182.0
7193.509,196.0
7203.635,183.0
7219.503,196.0
7223.587,186.0
7233.947,188.0
7243.796,180.0
7253.504,191.0
7263.677,195.0
7273.697,193.0
7283.728,184.0
7293.62,192.0
7303.631,197.0
7313.557,195.0
7323.934,188.0
7337.633,190.0
7343.652,192.0
7353.619,192.0
7363.638,193.0
7373.669,191.0
7383.642,197.0
7394.664,190.0
7403.657,196.0
7413.662,185.0
7423.599,182.0
7433.546,192.0
7443.598,184.0
7454.696,182.0
7463.728,197.0
7473.762,184.0
7483.604,181.0
7493.638,192.0
7503.659,195.0
7513.594,199.0
7523.626,190.0
7534.564,190.0
7544.599,190.0
7553.576,193.0
7563.715,188.0
7573.96,191.0
7583.875,186.0
7593.896,176.0
7604.201,184.0
7613.553,192.0
7624.312,188.0
7633.594,188.0
7643.613,189.0
7653.694,197.0
7664.52,197.0
7673.59,188.0
7683.496,181.0
7695.64,193.0
7703.703,187.0
7713.817,187.0
7723.713,174.0
7733.74,192.0
7745.418,189.0
7753.598,197.0
7765.525,187.0
7773.66,190.0
7785.627,184.0
7793.56,195.0
7805.735,187.0
7813.942,193.0
7823.74,185.0
7833.47,185.0
7843.599,189.0
7853.624,166.0
7866.214,188.0
7873.613,182.0
7886.316,182.0
7894.581,147.0
7903.734,182.0
7918.244,192.0
7923.648,186.0
7934.013,182.0
7943.813,182.0
7953.599,183.0
7968.08,185.0
7973.103,187.0
7983.48,193.0
7993.622,185.0
8008.271,182.0
8013.61,193.0
8023.6,187.0
8033.402,192.0
8048.489,188.0
8057.157,192.0
8063.612,188.0
8073.606,193.0
8083.507,183.0
8093.543,192.0
8103.613,186.0
8113.611,150.0
8123.605,151.0
8133.639,146.0
8143.686,148.0
8153.707,176.0
8164.567,145.0
8174.286,147.0
8184.146,165.0
8193.785,183.0
8203.616,179.0
8213.656,161.0
8223.62,155.0
8233.716,183.0
8243.682,149.0
8253.657,194.0
8263.655,195.0
8273.581,195.0
8283.713,180.0
8298.586,166.0
8304.371,149.0
8314.1,146.0
8323.615,164.0
8333.556,155.0
8343.616,145.0
8353.68,203.0
8363.698,196.0
8373.698,184.0
8383.678,194.0
8393.592,200.0
8404.074,146.0
8414.187,114.0
8423.859,137.0
8433.661,140.0
8443.668,157.0
8453.709,158.0
8463.68,116.0
8473.713,148.0
8483.794,157.0
8493.792,150.0
8503.736,149.0
8513.776,174.0
8523.811,143.0
8534.402,149.0
8543.661,148.0
8554.418,167.0
8563.531,151.0
8573.601,185.0
8583.522,143.0
8594.704,151.0
8603.649,169.0
8614.803,188.0
8623.624,185.0
8633.657,190.0
8643.981,157.0
8655.013,115.0
8664.07,140.0
8674.094,151.0
8683.511,156.0
8693.58,164.0
8703.641,161.0
8713.634,109.0
8723.622,154.0
8733.652,174.0
8743.64,155.0
8753.681,193.0
8763.713,147.0
8775.968,163.0
8783.884,187.0
8798.258,189.0
8803.641,151.0
8813.644,155.0
8823.636,192.0
8838.494,193.0
8843.617,192.0
8858.545,190.0
8863.654,195.0
8878.299,190.0
8883.941,190.0
8894.026,152.0
8904.145,186.0
8914.17,193.0
8923.616,192.0
8933.573,200.0
8943.626,200.0
8953.64,189.0
8963.665,158.0
8973.649,153.0
8983.637,198.0
8993.673,204.0
9003.655,191.0
9014.172,190.0
9024.107,176.0
9034.063,189.0
9043.628,186.0
9053.625,194.0
9063.65,190.0
9073.702,201.0
9083.638,197.0
9093.521,195.0
9103.681,197.0
9113.589,197.0
9123.692,156.0
9134.082,149.0
9144.529,176.0
9153.762,185.0
9164.039,190.0
9173.604,205.0
9184.21,195.0
9193.666,192.0
9204.318,192.0
9213.653,193.0
9224.418,187.0
9238.778,197.0
9243.832,195.0
9254.664,191.0
9264.528,198.0
9274.547,200.0
9283.729,152.0
9293.769,153.0
9305.178,151.0
9313.672,154.0
9323.644,157.0
9333.647,155.0
9343.672,151.0
9353.708,153.0
9365.459,187.0
9374.074,192.0
9384.036,192.0
9393.816,200.0
9403.844,152.0
9413.873,199.0
9426.297,192.0
9433.65,172.0
9443.687,192.0
9453.708,193.0
9466.523,193.0
9478.406,181.0
9486.612,177.0
9493.899,195.0
9508.749,164.0
9513.774,198.0
9528.031,190.0
9533.068,193.0
9543.657,154.0
9553.649,154.0
9563.683,166.0
9573.747,169.0
9588.333,168.0
9593.458,161.0
9608.427,174.0
9614.35,162.0
9627.397,156.0
9633.699,169.0
9643.73,180.0
9652.8,159.0
9663.658,158.0
9673.659,151.0
9688.714,159.0
9694.786,159.0
9703.76,159.0
9718.365,192.0
9723.683,200.0
9734.292,195.0
9748.223,195.0
9753.655,198.0
9763.651,197.0
9773.629,200.0
9783.659,202.0
9794.573,201.0
9803.691,202.0
9813.687,205.0
9823.652,197.0
9833.608,197.0
9844.187,197.0
9854.231,197.0
9863.742,195.0
9873.684,193.0
9883.653,200.0
9893.62,198.0
9903.524,195.0
9913.676,195.0
9923.666,202.0
9933.702,194.0
9943.561,201.0
9953.604,196.0
9964.313,195.0
9974.34,198.0
9983.865,193.0
9994.743,198.0
10003.538,203.0
10013.583,198.0
10023.677,197.0
10033.692,198.0
10043.687,195.0
10053.752,197.0
10063.699,202.0
10073.636,206.0
10084.36,193.0
10094.395,198.0
10103.565,197.0
10114.257,205.0
10123.534,203.0
10133.574,200.0
10143.672,194.0
10154.532,198.0
10163.674,197.0
10174.647,197.0
10183.548,206.0
10193.591,196.0
10203.711,200.0
10214.152,203.0
10224.187,199.0
10233.61,195.0
10243.572,198.0
10253.61,200.0
10263.682,193.0
10275.379,197.0
10283.729,210.0
10295.481,191.0
10303.555,201.0
10313.591,202.0
10323.706,198.0
10335.712,198.0
10343.773,198.0
10353.686,197.0
10363.707,197.0
10373.622,206.0
10383.527,203.0
10396.314,215.0
10403.804,215.0
10416.423,215.0
10423.77,206.0
10433.626,175.0
10443.703,156.0
10456.638,154.0
10463.872,184.0
10473.668,194.0
10483.636,163.0
10493.67,164.0
10503.79,154.0
10517.284,189.0
10523.738,187.0
10533.771,193.0
10543.676,192.0
10553.718,169.0
10563.734,165.0
10579.034,169.0
10584.058,159.0
10594.555,176.0
10603.763,173.0
10613.732,200.0
10623.695,200.0
10633.69,198.0
10643.666,192.0
10653.678,193.0
10663.688,198.0
10673.635,201.0
10683.765,202.0
10698.191,198.0
10704.739,200.0
10713.717,195.0
10723.761,197.0
10733.644,201.0
10743.698,201.0
10753.698,195.0
10763.696,200.0
10773.7,204.0
10783.702,203.0
10793.626,201.0
10804.53,193.0
10814.145,200.0
10823.962,197.0
10833.701,193.0
10843.679,201.0
10853.613,195.0
10863.676,202.0
10873.708,202.0
10883.69,203.0
10894.657,195.0
10903.725,198.0
10913.646,196.0
10923.714,196.0
10938.2,206.0
10943.974,195.0
10953.684,198.0
10963.81,198.0
10973.678,201.0
10983.684,205.0
10993.711,201.0
11003.675,200.0
11013.698,205.0
11024.15,199.0
11033.66,199.0
11044.431,197.0
11057.993,204.0
11064.489,204.0
11073.737,207.0
11084.633,200.0
11093.661,203.0
11104.749,200.0
11113.758,188.0
11123.79,182.0
11133.81,183.0
11143.735,179.0
11153.78,161.0
11165.041,188.0
11174.122,159.0
11185.159,184.0
11194.092,191.0
11206.215,174.0
11213.653,188.0
11226.313,180.0
11233.712,149.0
11243.977,190.0
11253.687,177.0
11263.713,195.0
11273.74,185.0
11286.608,197.0
11294.479,154.0
11306.924,180.0
11314.291,159.0
11323.924,209.0
11337.742,197.0
11347.279,163.0
11353.72,188.0
11363.716,187.0
11373.681,182.0
11383.689,190.0
11398.494,200.0
11407.57,156.0
11414.163,164.0
11427.792,169.0
11433.746,187.0
11443.731,192.0
11453.485,200.0
11468.57,148.0
11473.889,149.0
11483.917,110.0
11493.701,159.0
11503.728,190.0
11518.742,193.0
11523.777,192.0
11534.214,190.0
11543.754,174.0
11554.361,187.0
11563.741,199.0
11573.783,191.0
11583.744,196.0
11593.742,188.0
11603.712,187.0
11613.598,187.0
11623.854,180.0
11633.893,185.0
11643.708,159.0
11654.433,182.0
11663.841,153.0
11673.784,107.0
11683.716,109.0
11693.747,145.0
11703.711,107.0
11713.588,148.0
11723.709,122.0
11733.728,153.0
11743.695,120.0
11753.937,187.0
11763.702,163.0
11774.253,196.0
11784.284,159.0
11795.178,193.0
11803.713,151.0
11813.75,119.0
11823.589,156.0
11833.715,166.0
11843.706,161.0
11853.713,195.0
11863.7,201.0
11874.207,185.0
11884.247,197.0
11894.9,164.0
11904.886,208.0
11914.903,167.0
11923.584,200.0
11933.634,195.0
11943.707,197.0
11953.699,198.0
11963.727,198.0
11973.781,208.0
11983.711,200.0
11993.747,190.0
12003.725,203.0
12017.268,202.0
12024.192,204.0
12034.214,176.0
12043.853,203.0
12053.692,210.0
12063.661,216.0
12076.003,213.0
12083.598,205.0
12096.12,217.0
12103.754,209.0
12113.669,198.0
12123.812,203.0
12136.349,205.0
12143.919,166.0
12153.936,206.0
12163.708,161.0
12173.698,190.0
12183.732,160.0
12193.761,192.0
12203.62,193.0
12213.584,195.0
12223.705,192.0
12238.53,193.0
12243.712,189.0
12254.226,171.0
12264.264,164.0
12274.61,187.0
12283.669,193.0
12293.679,196.0
12303.719,192.0
12313.714,192.0
12323.753,188.0
12333.726,192.0
12343.586,190.0
12353.628,197.0
12364.527,200.0
12374.381,161.0
12383.957,199.0
12393.767,195.0
12403.76,198.0
12413.791,194.0
12423.79,187.0
12433.733,195.0
12443.723,200.0
12453.755,203.0
12463.766,190.0
12473.752,192.0
12483.801,209.0
12494.248,202.0
12503.887,164.0
12513.914,193.0
12524.563,190.0
12533.732,198.0
12544.719,197.0
12553.743,188.0
12563.734,189.0
12573.722,149.0
12583.75,123.0
12599.058,107.0
12604.087,99.0
12614.754,149.0
12624.733,93.0
12637.3,157.0
12643.722,138.0
12653.748,154.0
12665.811,146.0
12673.773,107.0
12685.907,148.0
12693.751,160.0
12706.005,150.0
12718.459,147.0
12726.105,105.0
12734.492,162.0
12744.076,120.0
12753.795,148.0
12763.824,117.0
12772.902,146.0
12783.752,119.0
12793.732,157.0
12803.74,138.0
12813.733,171.0
12827.111,146.0
12838.787,199.0
12847.208,161.0
12854.763,197.0
12864.437,156.0
12874.117,196.0
12884.147,158.0
12893.015,166.0
12907.849,193.0
12913.831,188.0
12923.786,194.0
12933.779,206.0
12943.807,194.0
12958.414,198.0
12963.769,169.0
12975.165,202.0
12985.169,159.0
12993.847,193.0
13003.804,188.0
13013.516,193.0
13023.61,195.0
13033.738,189.0
13043.765,190.0
13053.727,179.0
13063.747,156.0
13073.8,197.0
13089.101,196.0
13094.124,172.0
13104.266,167.0
13113.622,187.0
13123.636,190.0
13133.671,193.0
13142.73,174.0
13153.597,189.0
13163.594,197.0
13173.593,192.0
13183.599,194.0
13193.638,202.0
13203.618,159.0
13214.26,189.0
13224.076,192.0
13233.598,193.0
13243.6,198.0
13253.639,200.0
13263.657,195.0
13273.603,200.0
13283.624,184.0
13293.628,177.0
13303.657,202.0
13313.7,198.0
13324.12,189.0
13333.736,162.0
13344.254,159.0
13353.876,188.0
13363.613,179.0
13373.647,158.0
13383.64,209.0
13393.665,160.0
13403.609,202.0
13413.652,210.0
13423.598,202.0
13434.408,198.0
13443.608,159.0
13455.077,197.0
13463.784,164.0
13473.822,186.0
13483.659,195.0
13493.7,198.0
13503.64,202.0
13515.767,198.0
13523.745,209.0
13533.773,202.0
13543.616,191.0
13555.998,202.0
13563.612,159.0
13576.112,198.0
13583.604,152.0
13597.459,175.0
13603.623,135.0
13613.658,155.0
13623.601,149.0
13633.634,166.0
13643.612,104.0
13653.641,153.0
13663.614,165.0
13673.649,153.0
13683.605,103.0
13694.513,115.0
13703.616,112.0
13713.884,150.0
13723.614,117.0
13732.965,147.0
13743.614,154.0
13753.618,108.0
13763.618,145.0
13773.627,148.0
13783.615,151.0
13798.92,141.0
13803.616,125.0
13815.119,151.0
13824.982,153.0
13833.955,122.0
13843.989,150.0
13853.125,187.0
13863.691,164.0
13873.695,190.0
13883.734,186.0
13893.725,188.0
13903.72,192.0
13913.753,199.0
13924.219,187.0
13934.245,161.0
13943.978,159.0
13953.999,187.0
13965.197,186.0
13973.742,197.0
13985.31,161.0
13993.761,191.0
14005.42,192.0
14013.795,206.0
14025.531,187.0
14033.831,188.0
14045.644,198.0
14055.671,197.0
14064.06,201.0
14074.761,203.0
14083.893,193.0
14093.924,193.0
14106.242,190.0
14113.846,199.0
14126.355,195.0
14133.851,181.0
14146.466,193.0
14153.194,198.0
14166.579,187.0
14176.597,192.0
14184.168,219.0
14193.808,199.0
14207.637,199.0
14217.838,193.0
14227.756,192.0
14233.641,200.0
14247.872,188.0
14253.786,193.0
14267.989,191.0
14278.858,197.0
14283.894,168.0
14294.492,199.0
14304.392,163.0
14313.962,194.0
14328.572,190.0
14333.6,195.0
14343.764,180.0
14353.911,198.0
14368.677,151.0
14373.833,166.0
14388.829,130.0
14393.865,185.0
14403.806,91.0
14414.45,134.0
14424.478,182.0
14434.233,149.0
14443.665,115.0
14453.706,153.0
14463.763,149.0
14473.772,121.0
14483.766,154.0
14493.762,146.0
14503.763,156.0
14518.787,165.0
14523.818,111.0
14534.395,159.0
14543.698,90.0
14554.232,145.0
14563.777,117.0
14573.816,115.0
14583.768,157.0
14593.77,165.0
14603.828,197.0
14613.833,157.0
14623.678,161.0
14633.719,188.0
14644.769,192.0
14654.445,107.0
14664.345,130.0
14674.38,175.0
14684.753,184.0
14693.776,167.0
14703.766,182.0
14713.783,188.0
14723.811,182.0
14733.767,189.0
14743.778,186.0
14759.105,177.0
14764.183,108.0
14774.403,182.0
14784.245,108.0
14793.771,155.0
14803.785,184.0
14813.783,154.0
14823.821,154.0
14834.029,181.0
14843.885,180.0
14854.132,182.0
14863.771,107.0
14879.19,195.0
14884.219,182.0
14894.351,155.0
14904.087,115.0
14915.752,151.0
14923.979,194.0
14933.794,191.0
14943.876,174.0
14956.044,187.0
14963.793,187.0
14973.822,154.0
14983.771,180.0
14993.811,195.0
15003.841,91.0
15016.358,115.0
15024.136,110.0
15033.928,190.0
15043.835,182.0
15053.858,197.0
15063.794,148.0
15077.71,183.0
15083.778,181.0
15093.803,149.0
15103.783,147.0
15113.738,200.0
15123.755,182.0
15134.193,149.0
15144.417,183.0
15153.804,153.0
15163.784,155.0
15173.812,184.0
15183.8,187.0
15193.691,146.0
15203.867,119.0
15213.826,133.0
15223.82,192.0
15238.55,100.0
15243.827,184.0
15254.229,116.0
15264.268,118.0
15273.78,187.0
15283.808,185.0
15293.837,186.0
15303.838,187.0
15313.907,187.0
15323.825,188.0
15333.862,187.0
15343.833,186.0
15353.903,185.0
15363.859,189.0
15375.068,145.0
15385.094,137.0
15394.059,117.0
15403.841,164.0
15413.869,176.0
15423.899,193.0
15433.831,175.0
15443.957,198.0
15453.877,174.0
15463.83,198.0
15478.778,155.0
15484.14,97.0
15494.505,157.0
15504.356,163.0
15514.389,157.0
15524.147,192.0
15534.169,166.0
15543.822,181.0
15553.798,141.0
15563.83,185.0
15573.85,187.0
15585.169,185.0
15593.789,147.0
15605.279,161.0
15615.052,117.0
15624.466,153.0
15634.49,153.0
15644.52,141.0
15652.921,187.0
15663.836,185.0
15673.799,155.0
15683.825,182.0
15693.798,174.0
15703.833,182.0
15718.864,183.0
15723.903,163.0
15733.713,184.0
15744.917,135.0
15754.946,185.0
15767.158,106.0
15773.205,172.0
15787.364,204.0
15793.809,207.0
15803.84,205.0
15813.806,189.0
15823.84,181.0
15833.772,180.0
15847.697,153.0
15854.834,169.0
15864.503,143.0
15873.806,151.0
15883.837,185.0
15893.761,180.0
15903.816,158.0
15913.806,156.0
15923.835,107.0
15933.848,162.0
15943.815,189.0
15953.859,154.0
15963.812,149.0
15974.563,150.0
15984.595,107.0
15994.473,154.0
16003.84,196.0
16013.877,157.0
16023.8,150.0
16033.808,127.0
16043.855,112.0
16053.829,158.0
16063.856,187.0
16073.804,166.0
16083.81,112.0
16094.898,117.0
16104.64,114.0
16114.278,110.0
16123.851,148.0
16133.884,184.0
16143.762,153.0
16153.844,151.0
16163.814,182.0
16173.814,158.0
16183.81,158.0
16198.612,127.0
16203.932,108.0
16215.047,137.0
16224.321,131.0
16234.224,115.0
16243.852,141.0
16253.886,165.0
16263.903,147.0
16273.774,119.0
16283.694,88.0
16293.83,122.0
16303.828,149.0
16318.914,154.0
16323.803,116.0
16334.897,154.0
16344.908,114.0
16354.464,115.0
16363.857,107.0
16373.89,155.0
16383.814,150.0
16393.814,161.0
16403.814,148.0
16413.821,164.0
16423.835,125.0
16439.04,115.0
16444.786,164.0
16454.804,162.0
16464.829,177.0
16474.102,139.0
16484.135,128.0
16494.141,151.0
16503.867,153.0
16513.905,104.0
16523.812,125.0
16533.845,162.0
16543.733,158.0
16554.817,169.0
16564.194,105.0
16576.126,91.0
16584.649,113.0
16595.14,111.0
16603.87,125.0
16613.902,121.0
16623.819,148.0
16633.851,156.0
16643.823,96.0
16656.398,116.0
16663.702,89.0
16673.73,117.0
16683.829,150.0
16696.603,111.0
16704.44,89.0
16714.266,157.0
16723.829,148.0
16733.856,118.0
16743.826,162.0
16753.855,162.0
16763.693,129.0
16773.834,164.0
16783.868,156.0
16798.607,176.0
16803.841,101.0
16814.795,91.0
16824.646,128.0
16834.717,148.0
16843.858,154.0
16853.891,150.0
16863.91,158.0
16873.834,151.0
16883.989,105.0
16893.825,113.0
16903.756,172.0
16919.049,120.0
16924.085,129.0
16935.528,149.0
16944.435,157.0
16959.011,114.0
16964.118,89.0
16973.083,153.0
16984.554,121.0
16993.848,151.0
17003.874,111.0
17013.899,120.0
17023.852,152.0
17033.888,171.0
17044.83,111.0
17054.41,116.0
17064.142,122.0
17074.555,104.0
17084.417,117.0
17094.442,156.0
17103.857,106.0
17114.008,155.0
17124.046,154.0
17133.842,161.0
17143.868,112.0
17154.333,171.0
17164.201,110.0
17174.306,118.0
17184.24,115.0
17194.268,99.0
17204.287,145.0
17213.036,135.0
17226.49,121.0
17233.879,157.0
17246.588,180.0
17254.048,133.0
17264.117,137.0
17274.148,173.0
17283.851,131.0
17293.838,130.0
17305.125,174.0
17315.148,139.0
17324.138,176.0
17333.155,175.0
17347.55,188.0
17353.737,158.0
17363.862,149.0
17373.85,150.0
17383.87,105.0
17399.11,133.0
17404.164,109.0
17414.583,109.0
17424.337,89.0
17434.782,105.0
17444.463,116.0
17453.23,154.0
17468.425,150.0
17473.891,156.0
17488.503,112.0
17493.782,153.0
17503.903,105.0
17518.589,165.0
17528.694,102.0
17535.006,109.0
17544.712,88.0
17554.284,138.0
17563.975,131.0
17574.009,148.0
17583.958,136.0
17593.884,176.0
17603.912,171.0
17613.873,130.0
17623.857,160.0
17639.273,138.0
17644.604,145.0
17654.496,125.0
17664.265,106.0
17676.168,123.0
17683.87,115.0
17692.935,148.0
17703.847,158.0
17713.886,147.0
17723.847,130.0
17733.876,164.0
17743.85,118.0
17758.728,176.0
17764.861,91.0
17774.529,162.0
17784.372,89.0
17795.176,132.0
17803.858,129.0
17813.895,150.0
17823.859,126.0
17833.858,156.0
17843.857,149.0
17853.881,164.0
17863.909,109.0
17873.906,151.0
17883.881,154.0
17894.444,134.0
17903.87,104.0
17914.59,172.0
17924.246,127.0
17933.854,149.0
17943.859,110.0
17953.955,107.0
17963.779,92.0
17973.727,149.0
17983.966,104.0
17998.705,148.0
18003.911,107.0
18014.023,107.0
18024.291,110.0
18034.122,109.0
18044.12,112.0
18054.338,112.0
18063.962,159.0
18073.986,109.0
18084.014,111.0
18093.907,154.0
18103.932,153.0
18114.631,171.0
18124.017,161.0
18134.714,163.0
18144.152,98.0
18154.858,120.0
18163.877,154.0
18173.912,172.0
18183.866,114.0
18193.893,129.0
18203.871,157.0
18213.898,138.0
18223.994,156.0
18236.482,135.0
18244.272,86.0
18256.568,141.0
18264.25,98.0
18276.149,174.0
18283.996,183.0
18294.034,171.0
18303.827,176.0
18317.74,137.0
18323.907,167.0
18333.935,161.0
18343.906,149.0
18354.306,156.0
18364.025,183.0
18374.356,157.0
18384.394,88.0
18394.509,110.0
18403.888,92.0
18413.915,161.0
18423.885,164.0
18433.896,125.0
18444.079,153.0
18454.027,182.0
18463.979,138.0
18478.766,171.0
18484.132,176.0
18493.878,151.0
18505.413,102.0
18513.883,115.0
18524.04,171.0
18533.088,139.0
18547.522,164.0
18553.879,189.0
18563.893,178.0
18573.871,172.0
18583.909,111.0
18594.395,134.0
18604.418,137.0
18613.914,108.0
18627.975,99.0
18634.234,151.0
18644.258,106.0
18653.222,134.0
18663.884,159.0
18673.899,156.0
18683.917,152.0
18693.901,121.0
18703.935,105.0
18719.119,170.0
18724.151,107.0
18733.907,171.0
18749.201,172.0
18754.227,158.0
18764.266,117.0
18774.075,153.0
18783.897,88.0
18793.903,130.0
18803.872,154.0
18813.911,109.0
18823.891,149.0
18834.304,167.0
18844.232,106.0
18853.902,112.0
18865.919,105.0
18874.129,109.0
18884.436,108.0
18893.154,149.0
18903.907,156.0
18913.908,152.0
18923.888,148.0
18933.905,107.0
18943.932,162.0
18958.817,149.0
18963.959,87.0
18974.061,122.0
18984.415,105.0
18999.866,151.0
19004.887,152.0
19013.946,142.0
19023.987,177.0
19034.069,145.0
19043.867,135.0
19053.927,109.0
19063.915,167.0
19078.89,170.0
19083.922,114.0
19094.03,136.0
19104.367,99.0
19117.926,108.0
19123.888,150.0
19133.136,153.0
19143.916,110.0
19153.947,161.0
19163.869,147.0
19173.934,153.0
19183.796,118.0
19198.782,137.0
19203.899,109.0
19214.107,112.0
19224.404,96.0
19233.891,109.0
19244.161,148.0
19254.194,145.0
19263.904,149.0
19273.929,118.0
19283.91,101.0
19293.939,108.0
19303.9,155.0
19314.686,149.0
19323.774,115.0
19334.788,116.0
19344.306,165.0
19356.934,135.0
19363.905,166.0
19373.941,181.0
19383.99,120.0
19393.999,156.0
19403.967,148.0
19413.995,127.0
19423.952,156.0
19437.588,137.0
19444.072,128.0
19454.481,150.0
19464.314,148.0
19474.444,117.0
19484.469,125.0
19493.92,147.0
19503.906,121.0
19513.898,127.0
19523.988,148.0
19534.024,154.0
19544.057,148.0
19559.131,173.0
19564.172,105.0
19573.913,108.0
19584.477,153.0
19594.306,157.0
19604.455,112.0
19613.153,146.0
19624.632,122.0
19633.907,150.0
19643.937,149.0
19653.929,157.0
19663.965,119.0
19678.831,178.0
19684.911,151.0
19694.368,143.0
19704.541,133.0
19714.563,105.0
19724.188,112.0
19734.211,148.0
19743.928,115.0
19753.949,136.0
19763.981,154.0
19773.917,112.0
19786.124,156.0
19793.976,94.0
19806.215,101.0
19814.502,107.0
19824.397,143.0
19834.426,144.0
19844.46,137.0
19858.257,158.0
19866.887,179.0
19873.91,166.0
19883.935,148.0
19893.932,179.0
19903.92,148.0
19913.904,174.0
19923.943,167.0
19934.55,109.0
19947.497,112.0
19958.115,116.0
19963.911,112.0
19973.14,152.0
19983.921,114.0
19993.965,138.0
20008.053,135.0
20013.934,110.0
20023.971,154.0
20038.937,169.0
20043.969,127.0
20054.278,147.0
20065.096,102.0
20074.35,108.0
20088.882,118.0
20093.904,148.0
20103.936,170.0
20113.969,139.0
20123.916,146.0
20133.944,159.0
20143.916,158.0
20159.335,172.0
20164.395,105.0
20174.023,149.0
20184.424,88.0
20193.884,153.0
20204.347,158.0
20214.386,125.0
20223.915,152.0
20233.919,157.0
20243.911,153.0
20253.945,105.0
20263.928,122.0
20273.925,173.0
20283.798,106.0
20294.346,117.0
20304.374,95.0
20314.207,115.0
20323.971,156.0
20333.3,110.0
20344.019,159.0
20354.173,111.0
20363.996,117.0
20373.928,122.0
20383.791,156.0
20398.713,148.0
20403.791,109.0
20414.861,119.0
20424.393,105.0
20438.678,117.0
20443.825,136.0
20453.032,161.0
20463.811,157.0
20473.893,146.0
20483.804,124.0
20493.796,120.0
20503.793,138.0
20519.15,174.0
20523.794,112.0
20533.862,108.0
20544.522,115.0
20553.796,105.0
20564.913,141.0
20573.21,101.0
20583.802,108.0
20593.823,164.0
20603.796,116.0
20613.798,143.0
20623.797,153.0
20634.326,99.0
20643.798,90.0
20654.822,156.0
20663.798,89.0
20674.166,101.0
20683.805,151.0
20693.849,111.0
20703.797,116.0
20713.824,148.0
20723.806,96.0
20733.832,150.0
20743.862,155.0
20754.97,136.0
20763.845,135.0
20773.922,138.0
20785.073,101.0
20794.256,136.0
20803.943,171.0
20813.976,157.0
20823.83,138.0
20833.931,174.0
20843.959,174.0
20853.874,141.0
20863.842,145.0
20873.882,132.0
20883.835,122.0
20894.405,118.0
20904.459,151.0
20914.079,140.0
20923.822,151.0
20933.28,92.0
20943.936,111.0
20953.947,127.0
20963.876,177.0
20973.896,152.0
20984.03,136.0
20999.237,125.0
21004.275,102.0
21013.996,139.0
21024.323,143.0
21034.199,115.0
21043.989,148.0
21053.998,146.0
21064.026,146.0
21074.022,126.0
21083.969,169.0
21093.963,116.0
21103.9,148.0
21113.93,149.0
21124.05,103.0
21134.198,102.0
21145.801,119.0
21154.254,165.0
21163.962,166.0
21173.989,135.0
21185.123,178.0
21193.965,155.0
21205.164,147.0
21213.969,115.0
21223.995,152.0
21234.022,170.0
21245.275,106.0
21254.476,141.0
21265.527,114.0
21274.233,163.0
21284.012,179.0
21294.034,147.0
21306.545,147.0
21313.949,110.0
21326.605,147.0
21333.956,184.0
21343.982,117.0
21358.946,97.0
21363.984,99.0
21374.423,146.0
21384.185,126.0
21393.954,81.0
21404.916,104.0
21413.919,82.0
21423.957,100.0
21436.99,89.0
21443.943,94.0
21457.005,101.0
21464.018,88.0
21473.93,121.0
21484.572,94.0
21497.06,90.0
21504.1,86.0
21517.666,86.0
21523.955,87.0
21533.931,86.0
